# Wilkinson Microwave Anisotropy Probe (WMAP) 7-year data release.
# WMAP 7-Year Binned Combined TT Power Spectrum, version 4.0 (January 2010)
#
# References: - WMAP Explanatory Supplement: http://lambda.gsfc.nasa.gov/
#             - Larson, et.al. (2010)
#
# Column 1 = mean multipole moment l for the bin
# Column 2 = smallest l contributing to the bin
# Column 3 = largest l contributing to the bin
# Column 4 = mean value of TT power spectrum (=  l(l+1)/2pi * C_l) in the bin,
#             units = uK^2.  The mean is unweighted.
# Column 5 = 'Error' for binned value, as computed from diagonal terms of the
#             Fisher matrix, units = uK^2.
#             Included only as an estimate of their magnitude.  The
#             multipole moments are slightly coupled, so a correct
#             treatment of errors requires use of the entire Fisher matrix.
# Column 6 = portion of column5 error attributed to measurement errors,
#             in "2SN + NN" form, units = uK^2.
# Column 7 = portion of column5 error attributed to cosmic variance, 
#             assuming the best-fit LCDM 
#
     2     2     2       200.8669       928.2459         4.8058       928.2335
     3     3     3      1050.6552       727.6663         5.1563       727.6481
     4     4     5      1105.4456       391.8586         3.9213       391.8390
     6     6     7      1021.8688       301.2368         4.2569       301.2067
     9     8    11       743.2494       169.6312         3.3772       169.5975
    13    12    14       790.5558       167.3106         4.4160       167.2523
    17    15    19       839.5955       118.0181         3.8949       117.9538
    22    20    24       692.2186       111.6831         4.5122       111.5919
    27    25    30       991.5222        99.4586         4.7491        99.3451
    33    31    36      1139.8510        99.1764         5.4525        99.0264
    40    37    44      1473.3108        87.2213         5.4592        87.0503
    48    45    52      1379.4624        89.9444         6.3323        89.7212
    56    53    60      1533.5916        93.5872         7.2482        93.3061
    65    61    70      1788.8237        88.1761         7.4620        87.8598
    76    71    81      1977.7253        89.8763         8.2787        89.4942
    87    82    92      2385.0540        96.7725         9.5928        96.2958
    98    93   104      2622.6660       100.2655        10.6078        99.7028
   111   105   117      3130.0854       104.7617        11.7911       104.0961
   125   118   132      3538.0659       106.4838        12.7642       105.7160
   140   133   147      4282.5312       115.6255        14.7795       114.6770
   155   148   163      4561.4619       119.8608        16.3881       118.7352
   172   164   181      4995.6836       119.0967        17.6034       117.7885
   191   182   200      5558.1929       119.4071        19.3382       117.8307
   210   201   220      5770.3506       116.0891        20.9167       114.1892
   231   221   241      5752.3320       108.8057        22.2124       106.5143
   253   242   265      5383.3643        93.1592        22.1600        90.4852
   278   266   290      4842.7690        78.6900        22.5466        75.3907
   304   291   317      3942.5508        61.5808        21.8793        57.5629
   332   318   347      3045.0010        45.0409        20.4181        40.1470
   363   348   379      2269.0959        33.6662        19.4597        27.4724
   397   380   415      1786.4948        27.7600        19.2944        19.9586
   436   416   456      1821.6323        28.5434        21.7262        18.5121
   479   457   502      2313.3291        33.9680        26.9987        20.6130
   526   503   550      2529.5752        40.9222        34.3858        22.1865
   575   551   600      2442.4521        46.3907        41.8649        19.9857
   625   601   650      1994.8179        51.9465        48.8109        17.7747
   675   651   700      1744.0881        63.4158        61.5892        15.1107
   725   701   750      2001.0618        83.8945        82.3407        16.0716
   775   751   800      2261.4739       112.3234       110.8238        18.2933
   825   801   850      2590.2556       147.7460       146.5799        18.5257
   875   851   900      2266.9851       190.7841       190.1394        15.6712
   925   901   950      2040.6460       244.5337       244.2712        11.3276
   975   951  1000      1311.3544       315.7274       315.6260         8.0046
  1050  1001  1100       982.1179       342.5657       342.5279         5.0877
  1150  1101  1200       991.1779       613.2487       613.2262         5.2472
